# Au Density=19.32, Angle=90.deg
# Photon Energy (eV), Atten Length (microns)
   30.0000  5.983483E-03
   30.4173  5.916092E-03
   30.8405  5.899231E-03
   31.2695  5.888117E-03
   31.7045  5.962568E-03
   32.1456  6.139183E-03
   32.5928  6.287518E-03
   33.0462  6.405372E-03
   33.5059  6.512153E-03
   33.9720  6.620741E-03
   34.4446  6.731142E-03
   34.9238  6.843646E-03
   35.4096  6.958320E-03
   35.9022  7.074949E-03
   36.4017  7.193516E-03
   36.9081  7.302299E-03
   37.4215  7.393271E-03
   37.9421  7.473179E-03
   38.4699  7.553980E-03
   39.0051  7.635626E-03
   39.5477  7.718178E-03
   40.0979  7.795947E-03
   40.6557  7.867669E-03
   41.2213  7.936068E-03
   41.7947  8.005016E-03
   42.3761  8.074588E-03
   42.9656  8.144792E-03
   43.5633  8.215541E-03
   44.1694  8.298173E-03
   44.7838  8.410226E-03
   45.4068  8.546043E-03
   46.0385  8.684088E-03
   46.6790  8.824484E-03
   47.3283  8.971479E-03
   47.9867  9.126832E-03
   48.6543  9.285828E-03
   49.3312  9.447590E-03
   50.0174  9.588171E-03
   50.7132  9.678753E-03
   51.4187  9.723776E-03
   52.1340  9.769041E-03
   52.8593  9.814445E-03
   53.5946  9.860095E-03
   54.3402  9.884816E-03
   55.0962  9.874947E-03
   55.8626  9.838275E-03
   56.6397  9.801713E-03
   57.4277  9.765308E-03
   58.2266  9.729037E-03
   59.0366  9.720088E-03
   59.8579  9.755969E-03
   60.6906  9.815676E-03
   61.5349  9.875732E-03
   62.3909  9.949043E-03
   63.2589  1.011410E-02
   64.1389  1.038826E-02
   65.0311  1.067894E-02
   65.9358  1.101369E-02
   66.8531  1.137906E-02
   67.7831  1.175653E-02
   68.7260  1.214653E-02
   69.6821  1.254944E-02
   70.6515  1.284655E-02
   71.6343  1.311880E-02
   72.6309  1.339038E-02
   73.6413  1.365678E-02
   74.6657  1.390403E-02
   75.7044  1.412941E-02
   76.7576  1.435990E-02
   77.8254  1.464744E-02
   78.9080  1.501743E-02
   80.0058  1.540911E-02
   81.1188  1.581097E-02
   82.2472  1.611914E-02
   83.3914  1.614882E-02
   84.5515  1.583837E-02
   85.7277  1.645876E-02
   86.9203  1.712008E-02
   88.1295  1.792881E-02
   89.3555  1.882061E-02
   90.5985  1.975680E-02
   91.8589  2.077557E-02
   93.1368  2.196025E-02
   94.4325  2.321748E-02
   95.7461  2.439815E-02
   97.0781  2.552132E-02
   98.4286  2.666288E-02
   99.7979  2.785555E-02
   101.186  2.913496E-02
   102.594  3.056771E-02
   104.021  3.211825E-02
   105.468  3.374797E-02
   106.935  3.546008E-02
   108.423  3.709688E-02
   109.931  3.865788E-02
   111.461  4.022102E-02
   113.011  4.184726E-02
   114.583  4.353926E-02
   116.177  4.529927E-02
   117.793  4.705658E-02
   119.432  4.883832E-02
   121.094  5.067305E-02
   122.778  5.257672E-02
   124.486  5.455196E-02
   126.218  5.660599E-02
   127.974  5.894346E-02
   129.754  6.189942E-02
   131.559  6.509023E-02
   133.389  6.817544E-02
   135.245  7.068602E-02
   137.126  7.247972E-02
   139.034  7.431903E-02
   140.968  7.620498E-02
   142.929  7.813846E-02
   144.918  7.953119E-02
   146.934  8.029795E-02
   148.978  8.074649E-02
   151.050  8.119746E-02
   153.152  8.165067E-02
   155.282  8.210701E-02
   157.442  8.234496E-02
   159.632  8.151183E-02
   161.853  8.037047E-02
   164.105  7.924581E-02
   166.388  7.813708E-02
   168.702  7.697790E-02
   171.049  7.537005E-02
   173.429  7.296742E-02
   175.841  7.060597E-02
   178.288  6.832155E-02
   180.768  6.611146E-02
   183.283  6.396611E-02
   185.832  6.187474E-02
   188.418  5.984196E-02
   191.039  5.787469E-02
   193.696  5.597326E-02
   196.391  5.413385E-02
   199.123  5.237284E-02
   201.893  5.072663E-02
   204.702  4.920640E-02
   207.549  4.773174E-02
   210.437  4.630066E-02
   213.364  4.493530E-02
   216.332  4.393093E-02
   219.342  4.308278E-02
   222.393  4.225123E-02
   225.487  4.143596E-02
   228.624  4.063594E-02
   231.804  3.985163E-02
   235.029  3.921100E-02
   238.298  3.864419E-02
   241.614  3.810338E-02
   244.975  3.757022E-02
   248.383  3.704425E-02
   251.838  3.653803E-02
   255.341  3.616922E-02
   258.894  3.581736E-02
   262.495  3.546999E-02
   266.147  3.512594E-02
   269.849  3.478522E-02
   273.603  3.448333E-02
   277.409  3.428779E-02
   281.269  3.418883E-02
   285.181  3.409008E-02
   289.149  3.399173E-02
   293.171  3.389356E-02
   297.250  3.379568E-02
   301.385  3.369812E-02
   305.577  3.360079E-02
   309.828  3.350388E-02
   314.139  3.348166E-02
   318.509  3.347794E-02
   322.940  3.347793E-02
   327.432  3.347795E-02
   331.987  3.347798E-02
   336.606  3.347790E-02
   341.288  3.347785E-02
   346.036  3.347798E-02
   350.850  3.348144E-02
   355.731  3.360835E-02
   360.679  3.378931E-02
   365.697  3.397124E-02
   370.784  3.415419E-02
   375.942  3.433808E-02
   381.172  3.452289E-02
   386.475  3.470875E-02
   391.851  3.489565E-02
   397.303  3.508359E-02
   402.830  3.531117E-02
   408.433  3.560870E-02
   414.115  3.594478E-02
   419.876  3.628421E-02
   425.717  3.662675E-02
   431.640  3.697257E-02
   437.644  3.732169E-02
   443.733  3.767407E-02
   449.905  3.803980E-02
   456.164  3.843983E-02
   462.510  3.887585E-02
   468.944  3.931674E-02
   475.468  3.976260E-02
   482.082  4.021361E-02
   488.789  4.066972E-02
   495.589  4.113093E-02
   502.483  4.159741E-02
   509.473  4.206926E-02
   516.561  4.255867E-02
   523.747  4.305738E-02
   531.033  4.356273E-02
   538.420  4.407405E-02
   545.910  4.459135E-02
   553.505  4.511469E-02
   561.205  4.564428E-02
   569.012  4.618555E-02
   576.928  4.675381E-02
   584.953  4.733245E-02
   593.091  4.791831E-02
   601.342  4.851146E-02
   609.707  4.911194E-02
   618.189  4.971983E-02
   626.789  5.033526E-02
   635.508  5.095827E-02
   644.349  5.158900E-02
   653.313  5.230479E-02
   662.402  5.313962E-02
   671.616  5.406097E-02
   680.959  5.499813E-02
   690.433  5.595178E-02
   700.037  5.692175E-02
   709.776  5.790859E-02
   719.650  5.891252E-02
   729.661  5.992448E-02
   739.812  6.094124E-02
   750.104  6.197471E-02
   760.539  6.302560E-02
   771.119  6.409442E-02
   781.846  6.518131E-02
   792.723  6.628691E-02
   803.751  6.748139E-02
   814.932  6.877843E-02
   826.269  7.010043E-02
   837.763  7.144774E-02
   849.418  7.282088E-02
   861.234  7.422046E-02
   873.215  7.565519E-02
   885.363  7.728893E-02
   897.679  7.912885E-02
   910.167  8.101271E-02
   922.829  8.294131E-02
   935.667  8.491589E-02
   948.683  8.693745E-02
   961.881  8.909387E-02
   975.262  9.137890E-02
   988.829  9.375498E-02
   1002.59  9.619285E-02
   1016.53  9.869465E-02
   1030.67  0.101261
   1045.01  0.104277
   1059.55  0.107607
   1074.29  0.111113
   1089.23  0.114733
   1104.39  0.118471
   1119.75  0.122332
   1135.33  0.126317
   1151.12  0.130434
   1167.14  0.134687
   1183.37  0.139079
   1199.83  0.143614
   1216.53  0.148265
   1233.45  0.152937
   1250.61  0.157382
   1268.01  0.161955
   1285.65  0.166662
   1303.53  0.171506
   1321.66  0.176723
   1340.05  0.182403
   1358.69  0.188335
   1377.59  0.194459
   1396.76  0.200782
   1416.19  0.207310
   1435.89  0.213626
   1455.87  0.219864
   1476.12  0.226249
   1496.65  0.233303
   1517.47  0.242851
   1538.58  0.252852
   1559.99  0.262782
   1581.69  0.271872
   1603.69  0.280672
   1626.00  0.289734
   1648.62  0.299466
   1671.56  0.310660
   1694.81  0.321443
   1718.39  0.331472
   1742.29  0.342588
   1766.53  0.353321
   1791.11  0.362990
   1816.02  0.372949
   1841.29  0.385686
   1866.90  0.397601
   1892.87  0.408117
   1919.20  0.420973
   1945.90  0.436049
   1972.97  0.451494
   2000.42  0.466032
   2028.25  0.480655
   2056.46  0.496978
   2085.07  0.514620
   2114.08  0.533448
   2143.49  0.552926
   2173.31  0.573623
   2203.54  0.560448
   2234.20  0.453352
   2265.28  0.274678
   2296.79  0.263066
   2328.74  0.216690
   2361.14  0.195820
   2393.98  0.192662
   2427.29  0.194226
   2461.05  0.198045
   2495.29  0.201305
   2530.00  0.205524
   2565.20  0.211044
   2600.89  0.216630
   2637.07  0.220490
   2673.75  0.224117
   2710.95  0.226397
   2748.66  0.215223
   2786.90  0.212532
   2825.67  0.217200
   2864.98  0.222458
   2904.83  0.227960
   2945.24  0.234372
   2986.22  0.241673
   3027.76  0.248905
   3069.88  0.256110
   3112.59  0.263988
   3155.89  0.267102
   3199.79  0.269072
   3244.30  0.274018
   3289.44  0.282557
   3335.20  0.291145
   3381.59  0.300142
   3428.64  0.306105
   3476.33  0.311810
   3524.69  0.321431
   3573.73  0.333187
   3623.44  0.344538
   3673.85  0.355979
   3724.96  0.367680
   3776.78  0.379572
   3829.32  0.392391
   3882.59  0.405798
   3936.60  0.419634
   3991.36  0.433886
   4046.89  0.448708
   4103.19  0.464540
   4160.27  0.480342
   4218.14  0.499985
   4276.82  0.515697
   4336.32  0.531685
   4396.64  0.549943
   4457.81  0.568345
   4519.82  0.588097
   4582.70  0.608292
   4646.45  0.629422
   4711.09  0.651272
   4776.63  0.673823
   4843.08  0.696897
   4910.45  0.720462
   4978.76  0.744908
   5048.02  0.768783
   5118.25  0.794110
   5189.45  0.821897
   5261.64  0.846487
   5334.84  0.873207
   5409.05  0.906540
   5484.30  0.938678
   5560.60  0.971908
   5637.95  1.00595
   5716.38  1.04090
   5795.91  1.07578
   5876.54  1.11435
   5958.29  1.15584
   6041.17  1.19359
   6125.21  1.23755
   6210.42  1.28297
   6296.82  1.32980
   6384.42  1.37830
   6473.23  1.42863
   6563.29  1.48088
   6654.59  1.53510
   6747.17  1.59137
   6841.03  1.64976
   6936.19  1.71036
   7032.69  1.77324
   7130.52  1.83852
   7229.72  1.90626
   7330.29  1.97652
   7432.27  2.04938
   7535.66  2.12500
   7640.49  2.20352
   7746.78  2.28495
   7854.55  2.36940
   7963.82  2.45698
   8074.61  2.54782
   8186.93  2.64204
   8300.83  2.73979
   8416.30  2.84120
   8533.39  2.94638
   8652.10  3.05542
   8772.46  3.16846
   8894.49  3.28561
   9018.23  3.40705
   9143.69  3.53295
   9270.89  3.66346
   9399.86  3.79878
   9530.62  3.93905
   9663.21  4.08445
   9797.64  4.23512
   9933.93  4.39123
   10072.1  4.55292
   10212.2  4.72036
   10354.3  4.89382
   10498.4  5.07348
   10644.4  5.25952
   10792.5  5.45219
   10942.6  5.65167
   11094.8  5.85818
   11249.2  6.07195
   11405.7  6.29321
   11564.4  6.52218
   11725.2  6.75909
   11888.3  7.00436
   12053.7  2.91606
   12221.4  3.02769
   12391.4  3.14365
   12563.8  3.26402
   12738.6  3.38899
   12915.8  3.51873
   13095.5  3.65345
   13277.7  3.79334
   13462.4  3.93856
   13649.6  4.08935
   13839.5  3.04310
   14032.1  3.15727
   14227.3  3.27572
   14425.2  2.95398
   14625.9  3.05645
   14829.3  3.16250
   15035.6  3.27265
   15244.8  3.38708
   15456.9  3.50589
   15671.9  3.62928
   15889.9  3.75739
   16111.0  3.89040
   16335.1  4.02852
   16562.3  4.17198
   16792.7  4.32100
   17026.3  4.47575
   17263.2  4.63646
   17503.4  4.80332
   17746.9  4.97660
   17993.7  5.15657
   18244.1  5.34343
   18497.9  5.53758
   18755.2  5.73922
   19016.1  5.94861
   19280.6  6.16607
   19548.9  6.39189
   19820.8  6.62640
   20096.5  6.86999
   20376.1  7.12301
   20659.6  7.38586
   20947.0  7.65881
   21238.4  7.94229
   21533.8  8.23670
   21833.4  8.54245
   22137.1  8.86005
   22445.1  9.18996
   22757.3  9.53263
   23073.9  9.88853
   23394.9  10.2581
   23720.4  10.6421
   24050.3  11.0408
   24384.9  11.4550
   24724.1  11.8851
   25068.1  12.3319
   25416.8  12.7960
   25770.4  13.2780
   26128.9  13.7787
   26492.4  14.2987
   26860.9  14.8387
   27234.6  15.3996
   27613.5  15.9822
   27997.6  16.5873
   28387.1  17.2158
   28782.0  17.8684
   29182.4  18.5463
   29588.4  19.2503
   30000.0  19.9814