# Pt Density=21.45, Angle=90.deg
# Photon Energy (eV), Atten Length (microns)
   30.0000  5.539932E-03
   30.4173  5.502512E-03
   30.8405  5.465342E-03
   31.2695  5.590006E-03
   31.7045  5.820381E-03
   32.1456  6.060248E-03
   32.5928  6.310002E-03
   33.0462  6.564958E-03
   33.5059  6.779773E-03
   33.9720  7.001621E-03
   34.4446  7.230727E-03
   34.9238  7.467326E-03
   35.4096  7.658146E-03
   35.9022  7.844850E-03
   36.4017  7.996325E-03
   36.9081  8.135231E-03
   37.4215  8.250811E-03
   37.9421  8.384813E-03
   38.4699  8.518481E-03
   39.0051  8.653809E-03
   39.5477  8.784520E-03
   40.0979  8.955190E-03
   40.6557  9.113429E-03
   41.2213  9.274363E-03
   41.7947  9.436574E-03
   42.3761  9.586161E-03
   42.9656  9.717287E-03
   43.5633  9.819787E-03
   44.1694  9.918300E-03
   44.7838  1.002624E-02
   45.4068  1.016183E-02
   46.0385  1.035667E-02
   46.6790  1.059973E-02
   47.3283  1.089601E-02
   47.9867  1.120769E-02
   48.6543  1.147189E-02
   49.3312  1.158586E-02
   50.0174  1.142778E-02
   50.7132  1.087185E-02
   51.4187  1.001319E-02
   52.1340  9.196762E-03
   52.8593  8.646103E-03
   53.5946  8.363405E-03
   54.3402  8.221482E-03
   55.0962  8.158725E-03
   55.8626  8.147672E-03
   56.6397  8.149419E-03
   57.4277  8.161231E-03
   58.2266  8.190325E-03
   59.0366  8.254603E-03
   59.8579  8.383756E-03
   60.6906  8.573690E-03
   61.5349  8.811764E-03
   62.3909  9.085535E-03
   63.2589  9.374822E-03
   64.1389  9.671347E-03
   65.0311  9.907948E-03
   65.9358  1.006606E-02
   66.8531  1.011466E-02
   67.7831  1.013070E-02
   68.7260  1.024796E-02
   69.6821  1.061236E-02
   70.6515  1.174341E-02
   71.6343  9.261458E-03
   72.6309  9.896494E-03
   73.6413  1.057243E-02
   74.6657  1.009476E-02
   75.7044  1.061387E-02
   76.7576  1.116956E-02
   77.8254  1.157440E-02
   78.9080  1.201802E-02
   80.0058  1.246867E-02
   81.1188  1.281922E-02
   82.2472  1.316306E-02
   83.3914  1.360952E-02
   84.5515  1.410534E-02
   85.7277  1.462338E-02
   86.9203  1.517365E-02
   88.1295  1.575598E-02
   89.3555  1.653562E-02
   90.5985  1.748246E-02
   91.8589  1.847788E-02
   93.1368  1.970889E-02
   94.4325  2.103861E-02
   95.7461  2.226326E-02
   97.0781  2.355913E-02
   98.4286  2.482549E-02
   99.7979  2.592122E-02
   101.186  2.714140E-02
   102.594  2.856105E-02
   104.021  3.016028E-02
   105.468  3.214709E-02
   106.935  3.433459E-02
   108.423  3.620473E-02
   109.931  3.846781E-02
   111.461  4.075686E-02
   113.011  4.309537E-02
   114.583  4.545872E-02
   116.177  4.771342E-02
   117.793  4.948330E-02
   119.432  5.106098E-02
   121.094  5.256695E-02
   122.778  5.392928E-02
   124.486  5.516526E-02
   126.218  5.618428E-02
   127.974  5.708986E-02
   129.754  5.784563E-02
   131.559  5.845280E-02
   133.389  5.897740E-02
   135.245  5.949264E-02
   137.126  5.999745E-02
   139.034  6.023990E-02
   140.968  6.017445E-02
   142.929  5.957536E-02
   144.918  5.860882E-02
   146.934  5.745449E-02
   148.978  5.628811E-02
   151.050  5.531598E-02
   153.152  5.459888E-02
   155.282  5.407119E-02
   157.442  5.354336E-02
   159.632  5.285140E-02
   161.853  5.198049E-02
   164.105  5.084311E-02
   166.388  4.951843E-02
   168.702  4.812152E-02
   171.049  4.674068E-02
   173.429  4.539866E-02
   175.841  4.409581E-02
   178.288  4.283070E-02
   180.768  4.151287E-02
   183.283  4.033499E-02
   185.832  3.934376E-02
   188.418  3.851530E-02
   191.039  3.783026E-02
   193.696  3.713077E-02
   196.391  3.649934E-02
   199.123  3.578635E-02
   201.893  3.525699E-02
   204.702  3.495239E-02
   207.549  3.462267E-02
   210.437  3.456126E-02
   213.364  3.437693E-02
   216.332  3.404962E-02
   219.342  3.352987E-02
   222.393  3.308990E-02
   225.487  3.252327E-02
   228.624  3.190737E-02
   231.804  3.138760E-02
   235.029  3.084706E-02
   238.298  3.059076E-02
   241.614  3.031367E-02
   244.975  3.016878E-02
   248.383  3.010309E-02
   251.838  2.992776E-02
   255.341  2.978962E-02
   258.894  2.959582E-02
   262.495  2.948216E-02
   266.147  2.941344E-02
   269.849  2.961047E-02
   273.603  2.978315E-02
   277.409  2.979567E-02
   281.269  2.971484E-02
   285.181  2.984762E-02
   289.149  2.970792E-02
   293.171  2.970813E-02
   297.250  2.981720E-02
   301.385  2.978077E-02
   305.577  2.960628E-02
   309.828  2.947311E-02
   314.139  2.930254E-02
   318.509  2.910406E-02
   322.940  2.910529E-02
   327.432  2.904424E-02
   331.987  2.908924E-02
   336.606  2.923345E-02
   341.288  2.936251E-02
   346.036  2.926460E-02
   350.850  2.923512E-02
   355.731  2.930119E-02
   360.679  2.943057E-02
   365.697  2.968458E-02
   370.784  2.979349E-02
   375.942  2.990965E-02
   381.172  3.007896E-02
   386.475  3.030447E-02
   391.851  3.053798E-02
   397.303  3.077434E-02
   402.830  3.111398E-02
   408.433  3.155544E-02
   414.115  3.196445E-02
   419.876  3.230985E-02
   425.717  3.256667E-02
   431.640  3.281448E-02
   437.644  3.307454E-02
   443.733  3.339750E-02
   449.905  3.376073E-02
   456.164  3.412056E-02
   462.510  3.445356E-02
   468.944  3.477860E-02
   475.468  3.526423E-02
   482.082  3.588390E-02
   488.789  3.651315E-02
   495.589  3.700159E-02
   502.483  3.743254E-02
   509.473  3.773464E-02
   516.561  3.730055E-02
   523.747  3.680333E-02
   531.033  3.714567E-02
   538.420  3.838050E-02
   545.910  3.894592E-02
   553.505  3.954173E-02
   561.205  4.083127E-02
   569.012  4.152459E-02
   576.928  4.217762E-02
   584.953  4.287265E-02
   593.091  4.359898E-02
   601.342  4.429333E-02
   609.707  4.466940E-02
   618.189  4.508411E-02
   626.789  4.604286E-02
   635.508  4.688098E-02
   644.349  4.771754E-02
   653.313  4.877181E-02
   662.402  4.966768E-02
   671.616  5.071200E-02
   680.959  5.175292E-02
   690.433  5.277141E-02
   700.037  5.374915E-02
   709.776  5.435086E-02
   719.650  5.531768E-02
   729.661  5.599260E-02
   739.812  5.672983E-02
   750.104  5.802828E-02
   760.539  5.925352E-02
   771.119  6.067006E-02
   781.846  6.232499E-02
   792.723  6.382965E-02
   803.751  6.537084E-02
   814.932  6.694893E-02
   826.269  6.856547E-02
   837.763  7.022777E-02
   849.418  7.197956E-02
   861.234  7.378362E-02
   873.215  7.563287E-02
   885.363  7.752841E-02
   897.679  7.947157E-02
   910.167  8.146333E-02
   922.829  8.351323E-02
   935.667  8.570179E-02
   948.683  8.795450E-02
   961.881  9.026669E-02
   975.262  9.263950E-02
   988.829  9.507468E-02
   1002.59  9.757350E-02
   1016.53  0.100176
   1030.67  0.102949
   1045.01  0.105830
   1059.55  0.108792
   1074.29  0.111836
   1089.23  0.114966
   1104.39  0.118183
   1119.75  0.121490
   1135.33  0.124890
   1151.12  0.128385
   1167.14  0.131978
   1183.37  0.135670
   1199.83  0.139468
   1216.53  0.143370
   1233.45  0.147383
   1250.61  0.151536
   1268.01  0.155896
   1285.65  0.160421
   1303.53  0.165077
   1321.66  0.169868
   1340.05  0.174798
   1358.69  0.179871
   1377.59  0.185092
   1396.76  0.190463
   1416.19  0.195991
   1435.89  0.201679
   1455.87  0.207532
   1476.12  0.213556
   1496.65  0.219810
   1517.47  0.226361
   1538.58  0.233129
   1559.99  0.240102
   1581.69  0.247282
   1603.69  0.254677
   1626.00  0.262294
   1648.62  0.270139
   1671.56  0.278217
   1694.81  0.286538
   1718.39  0.295107
   1742.29  0.303932
   1766.53  0.313196
   1791.11  0.322886
   1816.02  0.332875
   1841.29  0.343173
   1866.90  0.353789
   1892.87  0.364735
   1919.20  0.376018
   1945.90  0.387650
   1972.97  0.399643
   2000.42  0.412002
   2028.25  0.424749
   2056.46  0.437966
   2085.07  0.451883
   2114.08  0.466348
   2143.49  0.171236
   2173.31  0.176916
   2203.54  0.123689
   2234.20  0.127924
   2265.28  0.132304
   2296.79  0.136833
   2328.74  0.141519
   2361.14  0.146365
   2393.98  0.151376
   2427.29  0.156559
   2461.05  0.161919
   2495.29  0.167463
   2530.00  0.173197
   2565.20  0.179126
   2600.89  0.185259
   2637.07  0.191602
   2673.75  0.171301
   2710.95  0.177235
   2748.66  0.183375
   2786.90  0.189727
   2825.67  0.196300
   2864.98  0.203100
   2904.83  0.210135
   2945.24  0.217415
   2986.22  0.224946
   3027.76  0.219182
   3069.88  0.226665
   3112.59  0.234403
   3155.89  0.242405
   3199.79  0.250681
   3244.30  0.259239
   3289.44  0.268089
   3335.20  0.265678
   3381.59  0.274666
   3428.64  0.283959
   3476.33  0.293566
   3524.69  0.303499
   3573.73  0.313767
   3623.44  0.324383
   3673.85  0.335370
   3724.96  0.346781
   3776.78  0.358583
   3829.32  0.370790
   3882.59  0.383415
   3936.60  0.396560
   3991.36  0.410268
   4046.89  0.424451
   4103.19  0.439123
   4160.27  0.454302
   4218.14  0.470007
   4276.82  0.486252
   4336.32  0.503064
   4396.64  0.520452
   4457.81  0.538517
   4519.82  0.557355
   4582.70  0.576859
   4646.45  0.596904
   4711.09  0.617588
   4776.63  0.638993
   4843.08  0.661147
   4910.45  0.684518
   4978.76  0.709734
   5048.02  0.734733
   5118.25  0.761107
   5189.45  0.787074
   5261.64  0.814103
   5334.84  0.843982
   5409.05  0.875016
   5484.30  0.903980
   5560.60  0.935816
   5637.95  0.967901
   5716.38  1.00228
   5795.91  1.04048
   5876.54  1.07713
   5958.29  1.11471
   6041.17  1.15753
   6125.21  1.20037
   6210.42  1.24020
   6296.82  1.28383
   6384.42  1.33160
   6473.23  1.38004
   6563.29  1.42813
   6654.59  1.47888
   6747.17  1.53029
   6841.03  1.58506
   6936.19  1.64231
   7032.69  1.70164
   7130.52  1.76311
   7229.72  1.82679
   7330.29  1.89250
   7432.27  1.96002
   7535.66  2.02994
   7640.49  2.10282
   7746.78  2.17852
   7854.55  2.25695
   7963.82  2.33819
   8074.61  2.42236
   8186.93  2.50956
   8300.83  2.60058
   8416.30  2.69625
   8533.39  2.79151
   8652.10  2.89039
   8772.46  2.99492
   8894.49  3.10513
   9018.23  3.22332
   9143.69  3.33995
   9270.89  3.46079
   9399.86  3.58599
   9530.62  3.71573
   9663.21  3.85017
   9797.64  3.98798
   9933.93  4.13109
   10072.1  4.28628
   10212.2  4.44880
   10354.3  4.62500
   10498.4  4.81039
   10644.4  4.99935
   10792.5  5.18667
   10942.6  5.38071
   11094.8  5.58798
   11249.2  5.79719
   11405.7  6.02748
   11564.4  2.38902
   11725.2  2.48540
   11888.3  2.58467
   12053.7  2.68486
   12221.4  2.78892
   12391.4  2.89702
   12563.8  3.00932
   12738.6  3.13377
   12915.8  3.25872
   13095.5  3.38296
   13277.7  2.52947
   13462.4  2.61545
   13649.6  2.70432
   13839.5  2.79623
   14032.1  2.58065
   14227.3  2.66696
   14425.2  2.76912
   14625.9  2.86744
   14829.3  2.96923
   15035.6  3.07465
   15244.8  3.18381
   15456.9  3.29842
   15671.9  3.41941
   15889.9  3.54536
   16111.0  3.67590
   16335.1  3.81128
   16562.3  3.95165
   16792.7  4.09717
   17026.3  4.24804
   17263.2  4.40447
   17503.4  4.56665
   17746.9  4.73480
   17993.7  4.90914
   18244.1  5.08991
   18497.9  5.27728
   18755.2  5.47158
   19016.1  5.67299
   19280.6  5.88181
   19548.9  6.09834
   19820.8  6.32281
   20096.5  6.55537
   20376.1  6.79573
   20659.6  7.04461
   20947.0  7.30262
   21238.4  7.57005
   21533.8  7.84726
   21833.4  8.13462
   22137.1  8.43248
   22445.1  8.74122
   22757.3  9.06123
   23073.9  9.39369
   23394.9  9.73956
   23720.4  10.0983
   24050.3  10.4702
   24384.9  10.8557
   24724.1  11.2529
   25068.1  11.6609
   25416.8  12.0837
   25770.4  12.5219
   26128.9  12.9758
   26492.4  13.4647
   26860.9  13.9825
   27234.6  14.5205
   27613.5  15.0792
   27997.6  15.6592
   28387.1  16.2615
   28782.0  16.8869
   29182.4  17.5363
   29588.4  18.2105
   30000.0  18.9104