# He Pressure=760. Path=500. cm
# Photon energy (eV), Transmission
    100.00      0.00000    
    159.80      0.00000    
    219.60      0.00000    
    279.40      0.00000    
    339.20      0.00000    
    399.00      1.41594E-39
    458.80      1.05115E-25
    518.60      1.05293E-17
    578.40      9.54163E-13
    638.20      1.58850E-09
    698.00      2.63487E-07
    757.80      8.28738E-06
    817.60      1.03839E-04
    877.40      6.57408E-04
    937.20      2.57500E-03
    997.00      7.32232E-03
    1056.8      1.68460E-02
    1116.6      3.25472E-02
    1176.4      5.50609E-02
    1236.2      8.41733E-02
    1296.0      0.11841    
    1355.8      0.15664    
    1415.6      0.19779    
    1475.4      0.24077    
    1535.2      0.28602    
    1595.0      0.33160    
    1654.8      0.37604    
    1714.6      0.41881    
    1774.4      0.45991    
    1834.2      0.49892    
    1894.0      0.53544    
    1953.8      0.56942    
    2013.6      0.60082    
    2073.4      0.63008    
    2133.2      0.65720    
    2193.0      0.68220    
    2252.8      0.70522    
    2312.6      0.72639    
    2372.4      0.74584    
    2432.2      0.76370    
    2492.0      0.78009    
    2551.8      0.79515    
    2611.6      0.80898    
    2671.4      0.82167    
    2731.2      0.83334    
    2791.0      0.84406    
    2850.8      0.85392    
    2910.6      0.86299    
    2970.4      0.87133    
    3030.2      0.87904    
    3090.0      0.88615    
    3149.8      0.89272    
    3209.6      0.89879    
    3269.4      0.90439    
    3329.2      0.90957    
    3389.0      0.91436    
    3448.8      0.91880    
    3508.6      0.92291    
    3568.4      0.92672    
    3628.2      0.93025    
    3688.0      0.93353    
    3747.8      0.93658    
    3807.6      0.93941    
    3867.4      0.94204    
    3927.2      0.94448    
    3987.0      0.94676    
    4046.8      0.94890    
    4106.6      0.95090    
    4166.4      0.95278    
    4226.2      0.95454    
    4286.0      0.95619    
    4345.8      0.95773    
    4405.6      0.95918    
    4465.4      0.96054    
    4525.2      0.96182    
    4585.0      0.96301    
    4644.8      0.96414    
    4704.6      0.96520    
    4764.4      0.96620    
    4824.2      0.96713    
    4884.0      0.96802    
    4943.8      0.96885    
    5003.6      0.96963    
    5063.4      0.97039    
    5123.2      0.97111    
    5183.0      0.97179    
    5242.8      0.97243    
    5302.6      0.97303    
    5362.4      0.97360    
    5422.2      0.97415    
    5482.0      0.97466    
    5541.8      0.97514    
    5601.6      0.97560    
    5661.4      0.97604    
    5721.2      0.97645    
    5781.0      0.97684    
    5840.8      0.97721    
    5900.6      0.97756    
    5960.4      0.97789    
    6020.2      0.97821    
    6080.0      0.97853    
    6139.8      0.97883    
    6199.6      0.97912    
    6259.4      0.97940    
    6319.2      0.97966    
    6379.0      0.97991    
    6438.8      0.98014    
    6498.6      0.98037    
    6558.4      0.98058    
    6618.2      0.98079    
    6678.0      0.98098    
    6737.8      0.98117    
    6797.6      0.98134    
    6857.4      0.98151    
    6917.2      0.98167    
    6977.0      0.98182    
    7036.8      0.98197    
    7096.6      0.98211    
    7156.4      0.98224    
    7216.2      0.98236    
    7276.0      0.98248    
    7335.8      0.98259    
    7395.6      0.98270    
    7455.4      0.98280    
    7515.2      0.98290    
    7575.0      0.98299    
    7634.8      0.98308    
    7694.6      0.98316    
    7754.4      0.98324    
    7814.2      0.98332    
    7874.0      0.98339    
    7933.8      0.98346    
    7993.6      0.98352    
    8053.4      0.98360    
    8113.2      0.98367    
    8173.0      0.98374    
    8232.8      0.98381    
    8292.6      0.98387    
    8352.4      0.98393    
    8412.2      0.98399    
    8472.0      0.98405    
    8531.8      0.98410    
    8591.6      0.98415    
    8651.4      0.98420    
    8711.2      0.98425    
    8771.0      0.98429    
    8830.8      0.98433    
    8890.6      0.98437    
    8950.4      0.98441    
    9010.2      0.98445    
    9070.0      0.98448    
    9129.8      0.98452    
    9189.6      0.98455    
    9249.4      0.98458    
    9309.2      0.98461    
    9369.0      0.98463    
    9428.8      0.98466    
    9488.6      0.98468    
    9548.4      0.98471    
    9608.2      0.98473    
    9668.0      0.98475    
    9727.8      0.98477    
    9787.6      0.98479    
    9847.4      0.98480    
    9907.2      0.98482    
    9967.0      0.98483    
    10027.      0.98485    
    10087.      0.98488    
    10146.      0.98490    
    10206.      0.98493    
    10266.      0.98495    
    10326.      0.98497    
    10386.      0.98499    
    10445.      0.98501    
    10505.      0.98503    
    10565.      0.98505    
    10625.      0.98507    
    10685.      0.98509    
    10744.      0.98510    
    10804.      0.98512    
    10864.      0.98513    
    10924.      0.98515    
    10984.      0.98516    
    11043.      0.98517    
    11103.      0.98519    
    11163.      0.98520    
    11223.      0.98521    
    11283.      0.98522    
    11342.      0.98523    
    11402.      0.98524    
    11462.      0.98525    
    11522.      0.98526    
    11582.      0.98527    
    11641.      0.98528    
    11701.      0.98529    
    11761.      0.98529    
    11821.      0.98530    
    11881.      0.98531    
    11940.      0.98532    
    12000.      0.98532    
    12060.      0.98533    
    12120.      0.98533    
    12180.      0.98534    
    12239.      0.98534    
    12299.      0.98535    
    12359.      0.98535    
    12419.      0.98535    
    12479.      0.98536    
    12538.      0.98536    
    12598.      0.98536    
    12658.      0.98537    
    12718.      0.98537    
    12778.      0.98537    
    12837.      0.98537    
    12897.      0.98537    
    12957.      0.98538    
    13017.      0.98538    
    13077.      0.98538    
    13136.      0.98538    
    13196.      0.98538    
    13256.      0.98538    
    13316.      0.98538    
    13376.      0.98538    
    13435.      0.98538    
    13495.      0.98538    
    13555.      0.98538    
    13615.      0.98538    
    13675.      0.98538    
    13734.      0.98537    
    13794.      0.98537    
    13854.      0.98537    
    13914.      0.98537    
    13974.      0.98537    
    14033.      0.98537    
    14093.      0.98537    
    14153.      0.98536    
    14213.      0.98536    
    14273.      0.98536    
    14332.      0.98536    
    14392.      0.98535    
    14452.      0.98535    
    14512.      0.98535    
    14572.      0.98534    
    14631.      0.98534    
    14691.      0.98534    
    14751.      0.98534    
    14811.      0.98533    
    14871.      0.98533    
    14930.      0.98533    
    14990.      0.98532    
    15050.      0.98532    
    15110.      0.98533    
    15170.      0.98533    
    15229.      0.98533    
    15289.      0.98534    
    15349.      0.98534    
    15409.      0.98534    
    15469.      0.98534    
    15528.      0.98535    
    15588.      0.98535    
    15648.      0.98535    
    15708.      0.98535    
    15768.      0.98535    
    15827.      0.98536    
    15887.      0.98536    
    15947.      0.98536    
    16007.      0.98536    
    16067.      0.98536    
    16126.      0.98536    
    16186.      0.98537    
    16246.      0.98537    
    16306.      0.98537    
    16366.      0.98537    
    16425.      0.98537    
    16485.      0.98537    
    16545.      0.98537    
    16605.      0.98538    
    16665.      0.98538    
    16724.      0.98538    
    16784.      0.98538    
    16844.      0.98538    
    16904.      0.98538    
    16964.      0.98538    
    17023.      0.98538    
    17083.      0.98538    
    17143.      0.98538    
    17203.      0.98538    
    17263.      0.98538    
    17322.      0.98538    
    17382.      0.98538    
    17442.      0.98538    
    17502.      0.98538    
    17562.      0.98538    
    17621.      0.98539    
    17681.      0.98539    
    17741.      0.98539    
    17801.      0.98539    
    17861.      0.98539    
    17920.      0.98539    
    17980.      0.98539    
    18040.      0.98539    
    18100.      0.98539    
    18160.      0.98539    
    18219.      0.98539    
    18279.      0.98538    
    18339.      0.98538    
    18399.      0.98538    
    18459.      0.98538    
    18518.      0.98538    
    18578.      0.98538    
    18638.      0.98538    
    18698.      0.98538    
    18758.      0.98538    
    18817.      0.98538    
    18877.      0.98538    
    18937.      0.98538    
    18997.      0.98538    
    19057.      0.98538    
    19116.      0.98538    
    19176.      0.98538    
    19236.      0.98538    
    19296.      0.98538    
    19356.      0.98538    
    19415.      0.98538    
    19475.      0.98537    
    19535.      0.98537    
    19595.      0.98537    
    19655.      0.98537    
    19714.      0.98537    
    19774.      0.98537    
    19834.      0.98537    
    19894.      0.98537    
    19954.      0.98537    
    20013.      0.98536    
    20073.      0.98537    
    20133.      0.98537    
    20193.      0.98537    
    20253.      0.98537    
    20312.      0.98538    
    20372.      0.98538    
    20432.      0.98538    
    20492.      0.98538    
    20552.      0.98538    
    20611.      0.98539    
    20671.      0.98539    
    20731.      0.98539    
    20791.      0.98539    
    20851.      0.98540    
    20910.      0.98540    
    20970.      0.98540    
    21030.      0.98540    
    21090.      0.98540    
    21150.      0.98541    
    21209.      0.98541    
    21269.      0.98541    
    21329.      0.98541    
    21389.      0.98542    
    21449.      0.98542    
    21508.      0.98542    
    21568.      0.98542    
    21628.      0.98542    
    21688.      0.98543    
    21748.      0.98543    
    21807.      0.98543    
    21867.      0.98543    
    21927.      0.98543    
    21987.      0.98543    
    22047.      0.98544    
    22106.      0.98544    
    22166.      0.98544    
    22226.      0.98544    
    22286.      0.98544    
    22346.      0.98544    
    22405.      0.98545    
    22465.      0.98545    
    22525.      0.98545    
    22585.      0.98545    
    22645.      0.98545    
    22704.      0.98545    
    22764.      0.98546    
    22824.      0.98546    
    22884.      0.98546    
    22944.      0.98546    
    23003.      0.98546    
    23063.      0.98546    
    23123.      0.98547    
    23183.      0.98547    
    23243.      0.98547    
    23302.      0.98547    
    23362.      0.98547    
    23422.      0.98547    
    23482.      0.98547    
    23542.      0.98548    
    23601.      0.98548    
    23661.      0.98548    
    23721.      0.98548    
    23781.      0.98548    
    23841.      0.98548    
    23900.      0.98548    
    23960.      0.98549    
    24020.      0.98549    
    24080.      0.98549    
    24140.      0.98549    
    24199.      0.98549    
    24259.      0.98549    
    24319.      0.98549    
    24379.      0.98549    
    24439.      0.98550    
    24498.      0.98550    
    24558.      0.98550    
    24618.      0.98550    
    24678.      0.98550    
    24738.      0.98550    
    24797.      0.98550    
    24857.      0.98550    
    24917.      0.98551    
    24977.      0.98551    
    25037.      0.98551    
    25096.      0.98551    
    25156.      0.98551    
    25216.      0.98551    
    25276.      0.98551    
    25336.      0.98551    
    25395.      0.98551    
    25455.      0.98552    
    25515.      0.98552    
    25575.      0.98552    
    25635.      0.98552    
    25694.      0.98552    
    25754.      0.98552    
    25814.      0.98552    
    25874.      0.98552    
    25934.      0.98552    
    25993.      0.98553    
    26053.      0.98553    
    26113.      0.98553    
    26173.      0.98553    
    26233.      0.98553    
    26292.      0.98553    
    26352.      0.98553    
    26412.      0.98553    
    26472.      0.98553    
    26532.      0.98553    
    26591.      0.98553    
    26651.      0.98554    
    26711.      0.98554    
    26771.      0.98554    
    26831.      0.98554    
    26890.      0.98554    
    26950.      0.98554    
    27010.      0.98554    
    27070.      0.98554    
    27130.      0.98554    
    27189.      0.98554    
    27249.      0.98554    
    27309.      0.98555    
    27369.      0.98555    
    27429.      0.98555    
    27488.      0.98555    
    27548.      0.98555    
    27608.      0.98555    
    27668.      0.98555    
    27728.      0.98555    
    27787.      0.98555    
    27847.      0.98555    
    27907.      0.98555    
    27967.      0.98555    
    28027.      0.98556    
    28086.      0.98556    
    28146.      0.98556    
    28206.      0.98556    
    28266.      0.98556    
    28326.      0.98556    
    28385.      0.98556    
    28445.      0.98556    
    28505.      0.98556    
    28565.      0.98556    
    28625.      0.98556    
    28684.      0.98556    
    28744.      0.98556    
    28804.      0.98557    
    28864.      0.98557    
    28924.      0.98557    
    28983.      0.98557    
    29043.      0.98557    
    29103.      0.98557    
    29163.      0.98557    
    29223.      0.98557    
    29282.      0.98557    
    29342.      0.98557    
    29402.      0.98557    
    29462.      0.98557    
    29522.      0.98557    
    29581.      0.98557    
    29641.      0.98558    
    29701.      0.98558    
    29761.      0.98558    
    29821.      0.98558    
    29880.      0.98558    
    29940.      0.98558    
    30000.      0.98558    